# E (eV)  ldosup(E)  ldosdw(E) pdosup(E)  pdosdw(E)  pdosup(E)  pdosdw(E)  pdosup(E)  pdosdw(E)  pdosup(E)  pdosdw(E)  pdosup(E)  pdosdw(E) 
  15.000  0.502E-03  0.204E-03  0.880E-04  0.336E-04  0.109E-03  0.456E-04  0.109E-03  0.456E-04  0.880E-04  0.336E-04  0.109E-03  0.456E-04
  15.100  0.634E-03  0.259E-03  0.111E-03  0.427E-04  0.137E-03  0.578E-04  0.137E-03  0.578E-04  0.111E-03  0.427E-04  0.137E-03  0.578E-04
  15.200  0.788E-03  0.326E-03  0.137E-03  0.539E-04  0.171E-03  0.729E-04  0.171E-03  0.729E-04  0.137E-03  0.539E-04  0.171E-03  0.729E-04
  15.300  0.962E-03  0.407E-03  0.169E-03  0.672E-04  0.208E-03  0.909E-04  0.208E-03  0.909E-04  0.169E-03  0.672E-04  0.208E-03  0.909E-04
  15.400  0.118E-02  0.501E-03  0.208E-03  0.819E-04  0.254E-03  0.112E-03  0.254E-03  0.112E-03  0.208E-03  0.819E-04  0.254E-03  0.112E-03
  15.500  0.144E-02  0.602E-03  0.254E-03  0.991E-04  0.309E-03  0.135E-03  0.309E-03  0.135E-03  0.254E-03  0.991E-04  0.309E-03  0.135E-03
  15.600  0.174E-02  0.724E-03  0.309E-03  0.119E-03  0.374E-03  0.162E-03  0.374E-03  0.162E-03  0.309E-03  0.119E-03  0.374E-03  0.162E-03
  15.700  0.211E-02  0.868E-03  0.373E-03  0.144E-03  0.454E-03  0.194E-03  0.454E-03  0.194E-03  0.373E-03  0.144E-03  0.454E-03  0.194E-03
  15.800  0.256E-02  0.103E-02  0.453E-03  0.171E-03  0.550E-03  0.230E-03  0.550E-03  0.230E-03  0.453E-03  0.171E-03  0.550E-03  0.230E-03
  15.900  0.306E-02  0.123E-02  0.543E-03  0.204E-03  0.657E-03  0.274E-03  0.657E-03  0.274E-03  0.543E-03  0.204E-03  0.657E-03  0.274E-03
  16.000  0.367E-02  0.145E-02  0.655E-03  0.240E-03  0.787E-03  0.325E-03  0.787E-03  0.325E-03  0.655E-03  0.240E-03  0.787E-03  0.325E-03
  16.100  0.440E-02  0.171E-02  0.789E-03  0.283E-03  0.941E-03  0.383E-03  0.941E-03  0.383E-03  0.789E-03  0.283E-03  0.941E-03  0.383E-03
  16.200  0.532E-02  0.200E-02  0.956E-03  0.331E-03  0.114E-02  0.446E-03  0.114E-02  0.446E-03  0.956E-03  0.331E-03  0.114E-02  0.446E-03
  16.300  0.638E-02  0.233E-02  0.115E-02  0.388E-03  0.136E-02  0.519E-03  0.136E-02  0.519E-03  0.115E-02  0.388E-03  0.136E-02  0.519E-03
  16.400  0.770E-02  0.273E-02  0.138E-02  0.454E-03  0.165E-02  0.606E-03  0.165E-02  0.606E-03  0.138E-02  0.454E-03  0.165E-02  0.606E-03
  16.500  0.943E-02  0.319E-02  0.170E-02  0.532E-03  0.201E-02  0.708E-03  0.201E-02  0.708E-03  0.170E-02  0.532E-03  0.201E-02  0.708E-03
  16.600  0.114E-01  0.371E-02  0.206E-02  0.618E-03  0.244E-02  0.825E-03  0.244E-02  0.825E-03  0.206E-02  0.618E-03  0.244E-02  0.825E-03
  16.700  0.141E-01  0.431E-02  0.254E-02  0.717E-03  0.299E-02  0.960E-03  0.299E-02  0.960E-03  0.254E-02  0.717E-03  0.299E-02  0.960E-03
  16.800  0.174E-01  0.505E-02  0.316E-02  0.838E-03  0.369E-02  0.112E-02  0.369E-02  0.112E-02  0.316E-02  0.838E-03  0.369E-02  0.112E-02
  16.900  0.223E-01  0.589E-02  0.404E-02  0.980E-03  0.474E-02  0.131E-02  0.474E-02  0.131E-02  0.404E-02  0.980E-03  0.474E-02  0.131E-02
  17.000  0.290E-01  0.682E-02  0.526E-02  0.114E-02  0.616E-02  0.151E-02  0.616E-02  0.151E-02  0.526E-02  0.114E-02  0.616E-02  0.151E-02
  17.100  0.398E-01  0.797E-02  0.722E-02  0.133E-02  0.845E-02  0.177E-02  0.845E-02  0.177E-02  0.722E-02  0.133E-02  0.845E-02  0.177E-02
  17.200  0.149E+00  0.931E-02  0.402E-01  0.156E-02  0.227E-01  0.206E-02  0.227E-01  0.206E-02  0.402E-01  0.156E-02  0.227E-01  0.206E-02
  17.300  0.295E+00  0.110E-01  0.744E-01  0.183E-02  0.489E-01  0.243E-02  0.489E-01  0.243E-02  0.744E-01  0.183E-02  0.489E-01  0.243E-02
  17.400  0.317E+00  0.129E-01  0.853E-01  0.215E-02  0.486E-01  0.286E-02  0.486E-01  0.286E-02  0.853E-01  0.215E-02  0.486E-01  0.286E-02
  17.500  0.347E+00  0.152E-01  0.966E-01  0.253E-02  0.512E-01  0.337E-02  0.512E-01  0.337E-02  0.966E-01  0.253E-02  0.512E-01  0.337E-02
  17.600  0.371E+00  0.182E-01  0.108E+00  0.304E-02  0.517E-01  0.405E-02  0.517E-01  0.405E-02  0.108E+00  0.304E-02  0.517E-01  0.405E-02
  17.700  0.401E+00  0.217E-01  0.120E+00  0.362E-02  0.534E-01  0.482E-02  0.534E-01  0.482E-02  0.120E+00  0.362E-02  0.534E-01  0.482E-02
  17.800  0.441E+00  0.263E-01  0.136E+00  0.439E-02  0.559E-01  0.583E-02  0.559E-01  0.583E-02  0.136E+00  0.439E-02  0.559E-01  0.583E-02
  17.900  0.487E+00  0.322E-01  0.156E+00  0.538E-02  0.583E-01  0.716E-02  0.583E-01  0.716E-02  0.156E+00  0.538E-02  0.583E-01  0.716E-02
  18.000  0.592E+00  0.412E-01  0.200E+00  0.684E-02  0.641E-01  0.918E-02  0.641E-01  0.918E-02  0.200E+00  0.684E-02  0.641E-01  0.918E-02
  18.100  0.638E+00  0.538E-01  0.220E+00  0.894E-02  0.661E-01  0.120E-01  0.661E-01  0.120E-01  0.220E+00  0.894E-02  0.661E-01  0.120E-01
  18.200  0.677E+00  0.791E-01  0.239E+00  0.131E-01  0.662E-01  0.177E-01  0.662E-01  0.177E-01  0.239E+00  0.131E-01  0.662E-01  0.177E-01
  18.300  0.505E+00  0.174E+00  0.160E+00  0.288E-01  0.618E-01  0.388E-01  0.618E-01  0.388E-01  0.160E+00  0.288E-01  0.618E-01  0.388E-01
  18.400  0.439E+00  0.186E+00  0.125E+00  0.313E-01  0.629E-01  0.412E-01  0.629E-01  0.412E-01  0.125E+00  0.313E-01  0.629E-01  0.412E-01
  18.500  0.412E+00  0.187E+00  0.107E+00  0.319E-01  0.658E-01  0.412E-01  0.658E-01  0.412E-01  0.107E+00  0.319E-01  0.658E-01  0.412E-01
  18.600  0.401E+00  0.196E+00  0.935E-01  0.338E-01  0.715E-01  0.426E-01  0.715E-01  0.426E-01  0.935E-01  0.338E-01  0.715E-01  0.426E-01
  18.700  0.396E+00  0.199E+00  0.823E-01  0.352E-01  0.770E-01  0.429E-01  0.770E-01  0.429E-01  0.823E-01  0.352E-01  0.770E-01  0.429E-01
  18.800  0.291E+00  0.249E+00  0.766E-01  0.588E-01  0.460E-01  0.439E-01  0.460E-01  0.439E-01  0.766E-01  0.588E-01  0.460E-01  0.439E-01
  18.900  0.255E+00  0.276E+00  0.742E-01  0.698E-01  0.355E-01  0.454E-01  0.355E-01  0.454E-01  0.742E-01  0.698E-01  0.355E-01  0.454E-01
  19.000  0.226E+00  0.300E+00  0.728E-01  0.811E-01  0.269E-01  0.458E-01  0.269E-01  0.458E-01  0.728E-01  0.811E-01  0.269E-01  0.458E-01
  19.100  0.646E+00  0.328E+00  0.857E-01  0.925E-01  0.158E+00  0.475E-01  0.158E+00  0.475E-01  0.857E-01  0.925E-01  0.158E+00  0.475E-01
  19.200  0.136E+01  0.363E+00  0.138E+00  0.107E+00  0.361E+00  0.495E-01  0.361E+00  0.495E-01  0.138E+00  0.107E+00  0.361E+00  0.495E-01
  19.300  0.120E+01  0.406E+00  0.147E+00  0.125E+00  0.304E+00  0.519E-01  0.304E+00  0.519E-01  0.147E+00  0.125E+00  0.304E+00  0.519E-01
  19.400  0.906E+00  0.494E+00  0.115E+00  0.166E+00  0.225E+00  0.541E-01  0.225E+00  0.541E-01  0.115E+00  0.166E+00  0.225E+00  0.541E-01
  19.500  0.775E+00  0.619E+00  0.100E+00  0.216E+00  0.191E+00  0.624E-01  0.191E+00  0.624E-01  0.100E+00  0.216E+00  0.191E+00  0.624E-01
  19.600  0.690E+00  0.443E+00  0.909E-01  0.135E+00  0.170E+00  0.574E-01  0.170E+00  0.574E-01  0.909E-01  0.135E+00  0.170E+00  0.574E-01
  19.700  0.680E+00  0.380E+00  0.872E-01  0.104E+00  0.168E+00  0.576E-01  0.168E+00  0.576E-01  0.872E-01  0.104E+00  0.168E+00  0.576E-01
  19.800  0.706E+00  0.359E+00  0.833E-01  0.875E-01  0.180E+00  0.615E-01  0.180E+00  0.615E-01  0.833E-01  0.875E-01  0.180E+00  0.615E-01
  19.900  0.616E+00  0.331E+00  0.609E-01  0.741E-01  0.165E+00  0.610E-01  0.165E+00  0.610E-01  0.609E-01  0.741E-01  0.165E+00  0.610E-01
  20.000  0.641E+00  0.247E+00  0.644E-01  0.666E-01  0.171E+00  0.379E-01  0.171E+00  0.379E-01  0.644E-01  0.666E-01  0.171E+00  0.379E-01
  20.100  0.739E+00  0.215E+00  0.790E-01  0.621E-01  0.194E+00  0.301E-01  0.194E+00  0.301E-01  0.790E-01  0.621E-01  0.194E+00  0.301E-01
  20.200  0.981E+00  0.191E+00  0.120E+00  0.595E-01  0.247E+00  0.240E-01  0.247E+00  0.240E-01  0.120E+00  0.595E-01  0.247E+00  0.240E-01
  20.300  0.112E+01  0.216E+00  0.135E+00  0.581E-01  0.282E+00  0.334E-01  0.282E+00  0.334E-01  0.135E+00  0.581E-01  0.282E+00  0.334E-01
  20.400  0.943E+00  0.689E+00  0.106E+00  0.699E-01  0.244E+00  0.183E+00  0.244E+00  0.183E+00  0.106E+00  0.699E-01  0.244E+00  0.183E+00
  20.500  0.766E+00  0.879E+00  0.734E-01  0.902E-01  0.206E+00  0.233E+00  0.206E+00  0.233E+00  0.734E-01  0.902E-01  0.206E+00  0.233E+00
  20.600  0.707E+00  0.107E+01  0.539E-01  0.128E+00  0.200E+00  0.273E+00  0.200E+00  0.273E+00  0.539E-01  0.128E+00  0.200E+00  0.273E+00
  20.700  0.350E+00  0.888E+00  0.417E-01  0.102E+00  0.888E-01  0.228E+00  0.888E-01  0.228E+00  0.417E-01  0.102E+00  0.888E-01  0.228E+00
  20.800  0.307E+00  0.793E+00  0.364E-01  0.904E-01  0.780E-01  0.204E+00  0.780E-01  0.204E+00  0.364E-01  0.904E-01  0.780E-01  0.204E+00
  20.900  0.272E+00  0.755E+00  0.334E-01  0.841E-01  0.683E-01  0.196E+00  0.683E-01  0.196E+00  0.334E-01  0.841E-01  0.683E-01  0.196E+00
  21.000  0.262E+00  0.739E+00  0.318E-01  0.822E-01  0.661E-01  0.191E+00  0.661E-01  0.191E+00  0.318E-01  0.822E-01  0.661E-01  0.191E+00
  21.100  0.262E+00  0.743E+00  0.312E-01  0.813E-01  0.664E-01  0.193E+00  0.664E-01  0.193E+00  0.312E-01  0.813E-01  0.664E-01  0.193E+00
  21.200  0.268E+00  0.746E+00  0.332E-01  0.791E-01  0.673E-01  0.196E+00  0.673E-01  0.196E+00  0.332E-01  0.791E-01  0.673E-01  0.196E+00
  21.300  0.285E+00  0.715E+00  0.380E-01  0.721E-01  0.699E-01  0.190E+00  0.699E-01  0.190E+00  0.380E-01  0.721E-01  0.699E-01  0.190E+00
  21.400  0.309E+00  0.660E+00  0.409E-01  0.597E-01  0.756E-01  0.180E+00  0.756E-01  0.180E+00  0.409E-01  0.597E-01  0.756E-01  0.180E+00
  21.500  0.342E+00  0.682E+00  0.485E-01  0.611E-01  0.816E-01  0.187E+00  0.816E-01  0.187E+00  0.485E-01  0.611E-01  0.816E-01  0.187E+00
  21.600  0.387E+00  0.834E+00  0.597E-01  0.841E-01  0.891E-01  0.222E+00  0.891E-01  0.222E+00  0.597E-01  0.841E-01  0.891E-01  0.222E+00
  21.700  0.463E+00  0.905E+00  0.788E-01  0.959E-01  0.102E+00  0.238E+00  0.102E+00  0.238E+00  0.788E-01  0.959E-01  0.102E+00  0.238E+00
  21.800  0.578E+00  0.835E+00  0.106E+00  0.803E-01  0.122E+00  0.225E+00  0.122E+00  0.225E+00  0.106E+00  0.803E-01  0.122E+00  0.225E+00
  21.900  0.865E+00  0.704E+00  0.170E+00  0.561E-01  0.175E+00  0.197E+00  0.175E+00  0.197E+00  0.170E+00  0.561E-01  0.175E+00  0.197E+00
  22.000  0.991E+00  0.624E+00  0.225E+00  0.413E-01  0.180E+00  0.180E+00  0.180E+00  0.180E+00  0.225E+00  0.413E-01  0.180E+00  0.180E+00
  22.100  0.114E+01  0.588E+00  0.292E+00  0.307E-01  0.186E+00  0.176E+00  0.186E+00  0.176E+00  0.292E+00  0.307E-01  0.186E+00  0.176E+00
  22.200  0.120E+01  0.346E+00  0.311E+00  0.234E-01  0.194E+00  0.999E-01  0.194E+00  0.999E-01  0.311E+00  0.234E-01  0.194E+00  0.999E-01
  22.300  0.126E+01  0.225E+00  0.325E+00  0.170E-01  0.204E+00  0.638E-01  0.204E+00  0.638E-01  0.325E+00  0.170E-01  0.204E+00  0.638E-01
  22.400  0.175E+01  0.196E+00  0.539E+00  0.145E-01  0.225E+00  0.557E-01  0.225E+00  0.557E-01  0.539E+00  0.145E-01  0.225E+00  0.557E-01
  22.500  0.190E+01  0.182E+00  0.647E+00  0.124E-01  0.203E+00  0.523E-01  0.203E+00  0.523E-01  0.647E+00  0.124E-01  0.203E+00  0.523E-01
  22.600  0.177E+01  0.175E+00  0.665E+00  0.109E-01  0.145E+00  0.510E-01  0.145E+00  0.510E-01  0.665E+00  0.109E-01  0.145E+00  0.510E-01
  22.700  0.152E+01  0.168E+00  0.583E+00  0.106E-01  0.119E+00  0.488E-01  0.119E+00  0.488E-01  0.583E+00  0.106E-01  0.119E+00  0.488E-01
  22.800  0.934E+00  0.175E+00  0.291E+00  0.116E-01  0.117E+00  0.505E-01  0.117E+00  0.505E-01  0.291E+00  0.116E-01  0.117E+00  0.505E-01
  22.900  0.770E+00  0.184E+00  0.202E+00  0.128E-01  0.122E+00  0.527E-01  0.122E+00  0.527E-01  0.202E+00  0.128E-01  0.122E+00  0.527E-01
  23.000  0.679E+00  0.197E+00  0.149E+00  0.158E-01  0.127E+00  0.553E-01  0.127E+00  0.553E-01  0.149E+00  0.158E-01  0.127E+00  0.553E-01
  23.100  0.621E+00  0.208E+00  0.114E+00  0.187E-01  0.131E+00  0.569E-01  0.131E+00  0.569E-01  0.114E+00  0.187E-01  0.131E+00  0.569E-01
  23.200  0.568E+00  0.223E+00  0.891E-01  0.217E-01  0.130E+00  0.599E-01  0.130E+00  0.599E-01  0.891E-01  0.217E-01  0.130E+00  0.599E-01
  23.300  0.532E+00  0.249E+00  0.699E-01  0.262E-01  0.131E+00  0.656E-01  0.131E+00  0.656E-01  0.699E-01  0.262E-01  0.131E+00  0.656E-01
  23.400  0.521E+00  0.288E+00  0.570E-01  0.325E-01  0.136E+00  0.744E-01  0.136E+00  0.744E-01  0.570E-01  0.325E-01  0.136E+00  0.744E-01
  23.500  0.514E+00  0.322E+00  0.466E-01  0.404E-01  0.140E+00  0.803E-01  0.140E+00  0.803E-01  0.466E-01  0.404E-01  0.140E+00  0.803E-01
  23.600  0.523E+00  0.414E+00  0.381E-01  0.579E-01  0.149E+00  0.993E-01  0.149E+00  0.993E-01  0.381E-01  0.579E-01  0.149E+00  0.993E-01
  23.700  0.518E+00  0.521E+00  0.310E-01  0.806E-01  0.152E+00  0.120E+00  0.152E+00  0.120E+00  0.310E-01  0.806E-01  0.152E+00  0.120E+00
  23.800  0.501E+00  0.541E+00  0.257E-01  0.909E-01  0.150E+00  0.120E+00  0.150E+00  0.120E+00  0.257E-01  0.909E-01  0.150E+00  0.120E+00
  23.900  0.516E+00  0.589E+00  0.215E-01  0.106E+00  0.158E+00  0.125E+00  0.158E+00  0.125E+00  0.215E-01  0.106E+00  0.158E+00  0.125E+00
  24.000  0.428E+00  0.634E+00  0.182E-01  0.123E+00  0.130E+00  0.129E+00  0.130E+00  0.129E+00  0.182E-01  0.123E+00  0.130E+00  0.129E+00
  24.100  0.320E+00  0.685E+00  0.158E-01  0.146E+00  0.960E-01  0.131E+00  0.960E-01  0.131E+00  0.158E-01  0.146E+00  0.960E-01  0.131E+00
  24.200  0.213E+00  0.747E+00  0.136E-01  0.174E+00  0.619E-01  0.133E+00  0.619E-01  0.133E+00  0.136E-01  0.174E+00  0.619E-01  0.133E+00
  24.300  0.125E+00  0.829E+00  0.126E-01  0.215E+00  0.334E-01  0.133E+00  0.334E-01  0.133E+00  0.126E-01  0.215E+00  0.334E-01  0.133E+00
  24.400  0.948E-01  0.939E+00  0.122E-01  0.264E+00  0.235E-01  0.137E+00  0.235E-01  0.137E+00  0.122E-01  0.264E+00  0.235E-01  0.137E+00
  24.500  0.915E-01  0.103E+01  0.119E-01  0.297E+00  0.226E-01  0.145E+00  0.226E-01  0.145E+00  0.119E-01  0.297E+00  0.226E-01  0.145E+00
  24.600  0.878E-01  0.108E+01  0.116E-01  0.308E+00  0.215E-01  0.155E+00  0.215E-01  0.155E+00  0.116E-01  0.308E+00  0.215E-01  0.155E+00
  24.700  0.844E-01  0.106E+01  0.114E-01  0.300E+00  0.205E-01  0.153E+00  0.205E-01  0.153E+00  0.114E-01  0.300E+00  0.205E-01  0.153E+00
  24.800  0.805E-01  0.855E+00  0.112E-01  0.243E+00  0.194E-01  0.123E+00  0.194E-01  0.123E+00  0.112E-01  0.243E+00  0.194E-01  0.123E+00
  24.900  0.774E-01  0.978E+00  0.109E-01  0.336E+00  0.186E-01  0.102E+00  0.186E-01  0.102E+00  0.109E-01  0.336E+00  0.186E-01  0.102E+00
  25.000  0.749E-01  0.109E+01  0.106E-01  0.389E+00  0.179E-01  0.104E+00  0.179E-01  0.104E+00  0.106E-01  0.389E+00  0.179E-01  0.104E+00
  25.100  0.719E-01  0.133E+01  0.103E-01  0.480E+00  0.171E-01  0.122E+00  0.171E-01  0.122E+00  0.103E-01  0.480E+00  0.171E-01  0.122E+00
  25.200  0.698E-01  0.260E+01  0.101E-01  0.101E+01  0.166E-01  0.192E+00  0.166E-01  0.192E+00  0.101E-01  0.101E+01  0.166E-01  0.192E+00
  25.300  0.676E-01  0.119E+01  0.981E-02  0.312E+00  0.160E-01  0.188E+00  0.160E-01  0.188E+00  0.981E-02  0.312E+00  0.160E-01  0.188E+00
  25.400  0.652E-01  0.869E+00  0.950E-02  0.178E+00  0.154E-01  0.171E+00  0.154E-01  0.171E+00  0.950E-02  0.178E+00  0.154E-01  0.171E+00
  25.500  0.633E-01  0.714E+00  0.927E-02  0.122E+00  0.149E-01  0.157E+00  0.149E-01  0.157E+00  0.927E-02  0.122E+00  0.149E-01  0.157E+00
  25.600  0.615E-01  0.645E+00  0.906E-02  0.909E-01  0.145E-01  0.154E+00  0.145E-01  0.154E+00  0.906E-02  0.909E-01  0.145E-01  0.154E+00
  25.700  0.597E-01  0.602E+00  0.884E-02  0.709E-01  0.140E-01  0.154E+00  0.140E-01  0.154E+00  0.884E-02  0.709E-01  0.140E-01  0.154E+00
  25.800  0.576E-01  0.466E+00  0.860E-02  0.566E-01  0.135E-01  0.118E+00  0.135E-01  0.118E+00  0.860E-02  0.566E-01  0.135E-01  0.118E+00
  25.900  0.559E-01  0.361E+00  0.838E-02  0.460E-01  0.131E-01  0.895E-01  0.131E-01  0.895E-01  0.838E-02  0.460E-01  0.131E-01  0.895E-01
  26.000  0.542E-01  0.262E+00  0.814E-02  0.389E-01  0.126E-01  0.615E-01  0.126E-01  0.615E-01  0.814E-02  0.389E-01  0.126E-01  0.615E-01
  26.100  0.526E-01  0.175E+00  0.794E-02  0.342E-01  0.122E-01  0.355E-01  0.122E-01  0.355E-01  0.794E-02  0.342E-01  0.122E-01  0.355E-01
  26.200  0.510E-01  0.150E+00  0.774E-02  0.322E-01  0.118E-01  0.285E-01  0.118E-01  0.285E-01  0.774E-02  0.322E-01  0.118E-01  0.285E-01
  26.300  0.496E-01  0.138E+00  0.753E-02  0.295E-01  0.115E-01  0.262E-01  0.115E-01  0.262E-01  0.753E-02  0.295E-01  0.115E-01  0.262E-01
  26.400  0.481E-01  0.130E+00  0.732E-02  0.277E-01  0.112E-01  0.247E-01  0.112E-01  0.247E-01  0.732E-02  0.277E-01  0.112E-01  0.247E-01
  26.500  0.465E-01  0.120E+00  0.710E-02  0.258E-01  0.108E-01  0.229E-01  0.108E-01  0.229E-01  0.710E-02  0.258E-01  0.108E-01  0.229E-01
  26.600  0.451E-01  0.115E+00  0.694E-02  0.243E-01  0.104E-01  0.221E-01  0.104E-01  0.221E-01  0.694E-02  0.243E-01  0.104E-01  0.221E-01
  26.700  0.438E-01  0.110E+00  0.675E-02  0.231E-01  0.101E-01  0.214E-01  0.101E-01  0.214E-01  0.675E-02  0.231E-01  0.101E-01  0.214E-01
  26.800  0.423E-01  0.105E+00  0.657E-02  0.217E-01  0.973E-02  0.206E-01  0.973E-02  0.206E-01  0.657E-02  0.217E-01  0.973E-02  0.206E-01
  26.900  0.409E-01  0.101E+00  0.638E-02  0.206E-01  0.937E-02  0.198E-01  0.937E-02  0.198E-01  0.638E-02  0.206E-01  0.937E-02  0.198E-01
  27.000  0.395E-01  0.968E-01  0.619E-02  0.196E-01  0.902E-02  0.192E-01  0.902E-02  0.192E-01  0.619E-02  0.196E-01  0.902E-02  0.192E-01
  27.100  0.382E-01  0.931E-01  0.602E-02  0.187E-01  0.871E-02  0.186E-01  0.871E-02  0.186E-01  0.602E-02  0.187E-01  0.871E-02  0.186E-01
  27.200  0.369E-01  0.895E-01  0.584E-02  0.179E-01  0.841E-02  0.179E-01  0.841E-02  0.179E-01  0.584E-02  0.179E-01  0.841E-02  0.179E-01
  27.300  0.357E-01  0.860E-01  0.568E-02  0.171E-01  0.813E-02  0.172E-01  0.813E-02  0.172E-01  0.568E-02  0.171E-01  0.813E-02  0.172E-01
  27.400  0.346E-01  0.831E-01  0.552E-02  0.165E-01  0.785E-02  0.167E-01  0.785E-02  0.167E-01  0.552E-02  0.165E-01  0.785E-02  0.167E-01
  27.500  0.335E-01  0.799E-01  0.535E-02  0.158E-01  0.759E-02  0.161E-01  0.759E-02  0.161E-01  0.535E-02  0.158E-01  0.759E-02  0.161E-01
  27.600  0.323E-01  0.772E-01  0.517E-02  0.152E-01  0.733E-02  0.156E-01  0.733E-02  0.156E-01  0.517E-02  0.152E-01  0.733E-02  0.156E-01
  27.700  0.312E-01  0.744E-01  0.502E-02  0.146E-01  0.707E-02  0.151E-01  0.707E-02  0.151E-01  0.502E-02  0.146E-01  0.707E-02  0.151E-01
  27.800  0.301E-01  0.715E-01  0.487E-02  0.139E-01  0.680E-02  0.146E-01  0.680E-02  0.146E-01  0.487E-02  0.139E-01  0.680E-02  0.146E-01
  27.900  0.291E-01  0.690E-01  0.473E-02  0.134E-01  0.655E-02  0.140E-01  0.655E-02  0.140E-01  0.473E-02  0.134E-01  0.655E-02  0.140E-01
  28.000  0.281E-01  0.666E-01  0.458E-02  0.129E-01  0.633E-02  0.136E-01  0.633E-02  0.136E-01  0.458E-02  0.129E-01  0.633E-02  0.136E-01
  28.100  0.271E-01  0.642E-01  0.443E-02  0.124E-01  0.608E-02  0.131E-01  0.608E-02  0.131E-01  0.443E-02  0.124E-01  0.608E-02  0.131E-01
  28.200  0.261E-01  0.618E-01  0.429E-02  0.120E-01  0.583E-02  0.126E-01  0.583E-02  0.126E-01  0.429E-02  0.120E-01  0.583E-02  0.126E-01
  28.300  0.250E-01  0.593E-01  0.416E-02  0.115E-01  0.555E-02  0.121E-01  0.555E-02  0.121E-01  0.416E-02  0.115E-01  0.555E-02  0.121E-01
  28.400  0.240E-01  0.571E-01  0.402E-02  0.111E-01  0.533E-02  0.116E-01  0.533E-02  0.116E-01  0.402E-02  0.111E-01  0.533E-02  0.116E-01
  28.500  0.231E-01  0.550E-01  0.388E-02  0.107E-01  0.513E-02  0.112E-01  0.513E-02  0.112E-01  0.388E-02  0.107E-01  0.513E-02  0.112E-01
  28.600  0.223E-01  0.530E-01  0.375E-02  0.103E-01  0.493E-02  0.108E-01  0.493E-02  0.108E-01  0.375E-02  0.103E-01  0.493E-02  0.108E-01
  28.700  0.214E-01  0.511E-01  0.362E-02  0.991E-02  0.473E-02  0.104E-01  0.473E-02  0.104E-01  0.362E-02  0.991E-02  0.473E-02  0.104E-01
  28.800  0.207E-01  0.491E-01  0.350E-02  0.950E-02  0.455E-02  0.100E-01  0.455E-02  0.100E-01  0.350E-02  0.950E-02  0.455E-02  0.100E-01
  28.900  0.198E-01  0.472E-01  0.336E-02  0.913E-02  0.437E-02  0.963E-02  0.437E-02  0.963E-02  0.336E-02  0.913E-02  0.437E-02  0.963E-02
  29.000  0.190E-01  0.454E-01  0.324E-02  0.881E-02  0.418E-02  0.925E-02  0.418E-02  0.925E-02  0.324E-02  0.881E-02  0.418E-02  0.925E-02
  29.100  0.182E-01  0.438E-01  0.313E-02  0.850E-02  0.399E-02  0.892E-02  0.399E-02  0.892E-02  0.313E-02  0.850E-02  0.399E-02  0.892E-02
  29.200  0.175E-01  0.421E-01  0.302E-02  0.818E-02  0.381E-02  0.858E-02  0.381E-02  0.858E-02  0.302E-02  0.818E-02  0.381E-02  0.858E-02
  29.300  0.168E-01  0.403E-01  0.291E-02  0.784E-02  0.367E-02  0.821E-02  0.367E-02  0.821E-02  0.291E-02  0.784E-02  0.367E-02  0.821E-02
  29.400  0.162E-01  0.387E-01  0.281E-02  0.755E-02  0.351E-02  0.786E-02  0.351E-02  0.786E-02  0.281E-02  0.755E-02  0.351E-02  0.786E-02
  29.500  0.155E-01  0.369E-01  0.271E-02  0.727E-02  0.337E-02  0.745E-02  0.337E-02  0.745E-02  0.271E-02  0.727E-02  0.337E-02  0.745E-02
  29.600  0.147E-01  0.354E-01  0.258E-02  0.697E-02  0.317E-02  0.716E-02  0.317E-02  0.716E-02  0.258E-02  0.697E-02  0.317E-02  0.716E-02
  29.700  0.137E-01  0.340E-01  0.247E-02  0.670E-02  0.292E-02  0.686E-02  0.292E-02  0.686E-02  0.247E-02  0.670E-02  0.292E-02  0.686E-02
  29.800  0.132E-01  0.326E-01  0.237E-02  0.643E-02  0.283E-02  0.657E-02  0.283E-02  0.657E-02  0.237E-02  0.643E-02  0.283E-02  0.657E-02
  29.900  0.126E-01  0.313E-01  0.228E-02  0.619E-02  0.269E-02  0.630E-02  0.269E-02  0.630E-02  0.228E-02  0.619E-02  0.269E-02  0.630E-02
  30.000  0.120E-01  0.299E-01  0.218E-02  0.592E-02  0.254E-02  0.603E-02  0.254E-02  0.603E-02  0.218E-02  0.592E-02  0.254E-02  0.603E-02
  30.100  0.114E-01  0.286E-01  0.209E-02  0.567E-02  0.240E-02  0.576E-02  0.240E-02  0.576E-02  0.209E-02  0.567E-02  0.240E-02  0.576E-02
